#      T [K]      F [kJ/mol]    S [J/K/mol]  C_v [J/K/mol]     E [kJ/mol]
       0.000       4.5962143      0.0000000      0.0000000      4.5962143
      10.000       4.5960613      0.0674022      0.2464706      4.5967353
      20.000       4.5922486      0.9320407      3.2439747      4.6108894
      30.000       4.5724108      3.2516967      8.7516426      4.6699617
      40.000       4.5238649      6.5820137     14.6709375      4.7871455
      50.000       4.4389478     10.4643077     20.2356235      4.9621632
      60.000       4.3137611     14.5953830     25.0968553      5.1894841
      70.000       4.1468729     18.7791647     29.1573406      5.4614145
      80.000       3.9384046     22.8966666     32.4716818      5.7701379
      90.000       3.6893848     26.8817029     35.1531092      6.1087381
     100.000       3.4013229     30.7016849     37.3213848      6.4714914
     110.000       3.0759438     34.3442293     39.0819739      6.8538091
     120.000       2.7150330     37.8085650     40.5209358      7.2520608
     130.000       2.3203483     41.1002707     41.7061087      7.6633835
     140.000       1.8935738     44.2281437     42.6901840      8.0855140
     150.000       1.4362976     47.2023738     43.5139078      8.5166537
     160.000       0.9500033     50.0335013     44.2088289      8.9553635
     170.000       0.4360701     52.7318420     44.7994822      9.4004833
     180.000      -0.1042236     55.3071870     45.3050661      9.8510701
     190.000      -0.6696941     57.7686628     45.7407085     10.3063518
     200.000      -1.2592454     60.1246841     46.1184192     10.7656914
     210.000      -1.8718621     62.3829589     46.4478041     11.2285593
     220.000      -2.5066023     64.5505211     46.7366040     11.6945124
     230.000      -3.1625915     66.6337769     46.9911015     12.1631772
     240.000      -3.8390163     68.6385565     47.2164317     12.6342373
     250.000      -4.5351188     70.5701662     47.4168197     13.1074228
     260.000      -5.2501919     72.4334389     47.5957642     13.5825022
     270.000      -5.9835745     74.2327809     47.7561797     14.0592763
     280.000      -6.7346478     75.9722146     47.9005083     14.5375723
     290.000      -7.5028314     77.6554178     48.0308077     15.0172398
     300.000      -8.2875800     79.2857583     48.1488200     15.4981475
     310.000      -9.0883807     80.8663254     48.2560281     15.9801802
     320.000      -9.9047501     82.3999574     48.3536999     16.4632363
     330.000     -10.7362321     83.8892671     48.4429241     16.9472260
     340.000     -11.5823957     85.3366632     48.5246399     17.4320697
     350.000     -12.4428331     86.7443704     48.5996603     17.9176965
     360.000     -13.3171577     88.1144465     48.6686922     18.4040430
     370.000     -14.2050030     89.4487985     48.7323522     18.8910525
     380.000     -15.1060205     90.7491960     48.7911798     19.3786739
     390.000     -16.0198792     92.0172840     48.8456493     19.8668615
     400.000     -16.9462636     93.2545936     48.8961783     20.3555738
     410.000     -17.8848733     94.4625523     48.9431357     20.8447732
     420.000     -18.8354213     95.6424929     48.9868488     21.3344257
     430.000     -19.7976339     96.7956610     49.0276081     21.8245003
     440.000     -20.7712492     97.9232229     49.0656727     22.3149689
     450.000     -21.7560166     99.0262716     49.1012739     22.8058056
     460.000     -22.7516963    100.1058330     49.1346189     23.2969868
     470.000     -23.7580582    101.1628708     49.1658936     23.7884911
     480.000     -24.7748817    102.1982918     49.1952651     24.2802984
     490.000     -25.8019548    103.2129497     49.2228844     24.7723905
     500.000     -26.8390742    104.2076497     49.2488874     25.2647507
     510.000     -27.8860439    105.1831513     49.2733975     25.7573633
     520.000     -28.9426756    106.1401723     49.2965264     26.2502140
     530.000     -30.0087880    107.0793916     49.3183757     26.7432896
     540.000     -31.0842062    108.0014515     49.3390377     27.2365776
     550.000     -32.1687618    108.9069609     49.3585967     27.7300666
     560.000     -33.2622922    109.7964970     49.3771295     28.2237461
     570.000     -34.3646404    110.6706077     49.3947066     28.7176060
     580.000     -35.4756547    111.5298137     49.4113923     29.2116373
     590.000     -36.5951886    112.3746097     49.4272458     29.7058311
     600.000     -37.7231004    113.2054666     49.4423213     30.2001796
     610.000     -38.8592530    114.0228329     49.4566688     30.6946751
     620.000     -40.0035135    114.8271358     49.4703344     31.1893107
     630.000     -41.1557535    115.6187828     49.4833604     31.6840797
     640.000     -42.3158483    116.3981628     49.4957862     32.1789759
     650.000     -43.4836771    117.1656471     49.5076478     32.6739935
     660.000     -44.6591228    117.9215907     49.5189790     33.1691271
     670.000     -45.8420716    118.6663329     49.5298107     33.6643714
     680.000     -47.0324132    119.4001984     49.5401719     34.1597217
     690.000     -48.2300403    120.1234981     49.5500894     34.6551734
     700.000     -49.4348489    120.8365300     49.5595881     35.1507221
     710.000     -50.6467377    121.5395796     49.5686912     35.6463638
     720.000     -51.8656081    122.2329206     49.5774203     36.1420947
     730.000     -53.0913646    122.9168160     49.5857957     36.6379111
     740.000     -54.3239138    123.5915180     49.5938361     37.1338095
     750.000     -55.5631651    124.2572691     49.6015592     37.6297867
     760.000     -56.8090301    124.9143024     49.6089813     38.1258397
     770.000     -58.0614228    125.5628419     49.6161180     38.6219654
     780.000     -59.3202594    126.2031032     49.6229836     39.1181611
     790.000     -60.5854580    126.8352940     49.6295916     39.6144242
     800.000     -61.8569390    127.4596140     49.6359549     40.1107521
     810.000     -63.1346247    128.0762558     49.6420853     40.6071425
     820.000     -64.4184392    128.6854052     49.6479939     41.1035931
     830.000     -65.7083084    129.2872411     49.6536915     41.6001017
     840.000     -67.0041602    129.8819363     49.6591878     42.0966663
     850.000     -68.3059239    130.4696573     49.6644923     42.5932848
     860.000     -69.6135306    131.0505653     49.6696138     43.0899555
     870.000     -70.9269130    131.6248156     49.6745605     43.5866765
     880.000     -72.2460052    132.1925584     49.6793404     44.0834462
     890.000     -73.5707430    132.7539391     49.6839608     44.5802628
     900.000     -74.9010633    133.3090980     49.6884287     45.0771249
     910.000     -76.2369046    133.8581709     49.6927508     45.5740309
     920.000     -77.5782069    134.4012894     49.6969334     46.0709794
     930.000     -78.9249110    134.9385808     49.7009823     46.5679691
     940.000     -80.2769595    135.4701682     49.7049032     47.0649986
     950.000     -81.6342958    135.9961711     49.7087015     47.5620668
     960.000     -82.9968647    136.5167051     49.7123822     48.0591723
     970.000     -84.3646120    137.0318825     49.7159501     48.5563140
     980.000     -85.7374848    137.5418120     49.7194097     49.0534909
     990.000     -87.1154311    138.0465990     49.7227655     49.5507019
    1000.000     -88.4984000    138.5463459     49.7260214     50.0479459
    1010.000     -89.8863416    139.0411520     49.7291815     50.5452220
    1020.000     -91.2792069    139.5311138     49.7322494     51.0425292
    1030.000     -92.6769480    140.0163249     49.7352286     51.5398667
    1040.000     -94.0795178    140.4968763     49.7381227     52.0372335
    1050.000     -95.4868703    140.9728563     49.7409347     52.5346289
    1060.000     -96.8989600    141.4443509     49.7436678     53.0320519
    1070.000     -98.3157426    141.9114435     49.7463249     53.5295020
    1080.000     -99.7371745    142.3742155     49.7489087     54.0269782
    1090.000    -101.1632128    142.8327456     49.7514220     54.5244799
    1100.000    -102.5938155    143.2871108     49.7538672     55.0220064
    1110.000    -104.0289414    143.7373860     49.7562469     55.5195570
    1120.000    -105.4685499    144.1836437     49.7585633     56.0171311
    1130.000    -106.9126011    144.6259550     49.7608186     56.5147281
    1140.000    -108.3610560    145.0643889     49.7630150     57.0123473
    1150.000    -109.8138762    145.4990125     49.7651546     57.5099882
    1160.000    -111.2710238    145.9298914     49.7672392     58.0076502
    1170.000    -112.7324617    146.3570894     49.7692707     58.5053328
    1180.000    -114.1981535    146.7806686     49.7712509     59.0030355
    1190.000    -115.6680633    147.2006898     49.7731815     59.5007577
    1200.000    -117.1421557    147.6172122     49.7750642     59.9984989
    1210.000    -118.6203960    148.0302932     49.7769006     60.4962588
    1220.000    -120.1027502    148.4399894     49.7786920     60.9940368
    1230.000    -121.5891847    148.8463554     49.7804401     61.4918325
    1240.000    -123.0796664    149.2494451     49.7821461     61.9896455
    1250.000    -124.5741629    149.6493105     49.7838115     62.4874753
    1260.000    -126.0726421    150.0460029     49.7854374     62.9853216
    1270.000    -127.5750725    150.4395720     49.7870252     63.4831839
    1280.000    -129.0814232    150.8300665     49.7885760     63.9810619
    1290.000    -130.5916638    151.2175341     49.7900910     64.4789553
    1300.000    -132.1057640    151.6020213     49.7915712     64.9768636
    1310.000    -133.6236944    151.9835733     49.7930177     65.4747866
    1320.000    -135.1454258    152.3622346     49.7944315     65.9727239
    1330.000    -136.6709296    152.7380487     49.7958137     66.4706751
    1340.000    -138.2001775    153.1110578     49.7971650     66.9686401
    1350.000    -139.7331415    153.4813036     49.7984865     67.4666183
    1360.000    -141.2697944    153.8488266     49.7997791     67.9646097
    1370.000    -142.8101091    154.2136664     49.8010434     68.4626138
    1380.000    -144.3540590    154.5758619     49.8022805     68.9606305
    1390.000    -145.9016177    154.9354511     49.8034910     69.4586593
    1400.000    -147.4527594    155.2924712     49.8046757     69.9567002
    1410.000    -149.0074587    155.6469585     49.8058353     70.4547528
    1420.000    -150.5656903    155.9989487     49.8069706     70.9528168
    1430.000    -152.1274294    156.3484766     49.8080821     71.4508921
    1440.000    -153.6926517    156.6955765     49.8091707     71.9489784
    1450.000    -155.2613330    157.0402817     49.8102368     72.4470754
    1460.000    -156.8334495    157.3826250     49.8112811     72.9451831
    1470.000    -158.4089777    157.7226386     49.8123043     73.4433010
    1480.000    -159.9878946    158.0603538     49.8133067     73.9414291
    1490.000    -161.5701772    158.3958015     49.8142892     74.4395671
    1500.000    -163.1558031    158.7290120     49.8152520     74.9377148
    1510.000    -164.7447501    159.0600147     49.8161959     75.4358720
    1520.000    -166.3369962    159.3888387     49.8171211     75.9340386
    1530.000    -167.9325197    159.7155125     49.8180284     76.4322144
    1540.000    -169.5312994    160.0400640     49.8189180     76.9303992
    1550.000    -171.1333140    160.3625205     49.8197905     77.4285927
    1560.000    -172.7385429    160.6829088     49.8206463     77.9267949
    1570.000    -174.3469654    161.0012554     49.8214859     78.4250056
    1580.000    -175.9585613    161.3175860     49.8223095     78.9232246
    1590.000    -177.5733105    161.6319259     49.8231177     79.4214517
    1600.000    -179.1911932    161.9443001     49.8239109     79.9196869
    1610.000    -180.8121900    162.2547328     49.8246893     80.4179299
    1620.000    -182.4362815    162.5632482     49.8254533     80.9161806
    1630.000    -184.0634486    162.8698697     49.8262034     81.4144389
    1640.000    -185.6936726    163.1746203     49.8269398     81.9127046
    1650.000    -187.3269349    163.4775228     49.8276628     82.4109777
    1660.000    -188.9632170    163.7785993     49.8283729     82.9092578
    1670.000    -190.6025009    164.0778718     49.8290702     83.4075451
    1680.000    -192.2447685    164.3753617     49.8297552     83.9058392
    1690.000    -193.8900022    164.6710902     49.8304280     84.4041401
    1700.000    -195.5381845    164.9650778     49.8310890     84.9024477
    1710.000    -197.1892980    165.2573450     49.8317385     85.4007619
    1720.000    -198.8433257    165.5479117     49.8323767     85.8990825
    1730.000    -200.5002507    165.8367977     49.8330039     86.3974094
    1740.000    -202.1600562    166.1240222     49.8336203     86.8957425
    1750.000    -203.8227257    166.4096042     49.8342262     87.3940817
    1760.000    -205.4882428    166.6935624     49.8348218     87.8924270
    1770.000    -207.1565915    166.9759151     49.8354073     88.3907782
    1780.000    -208.8277558    167.2566803     49.8359830     88.8891351
    1790.000    -210.5017199    167.5358758     49.8365491     89.3874978
    1800.000    -212.1784682    167.8135190     49.8371058     89.8858661
    1810.000    -213.8579852    168.0896271     49.8376533     90.3842399
    1820.000    -215.5402557    168.3642169     49.8381918     90.8826191
    1830.000    -217.2252645    168.6373050     49.8387216     91.3810037
    1840.000    -218.9129968    168.9089078     49.8392427     91.8793935
    1850.000    -220.6034378    169.1790412     49.8397554     92.3777885
    1860.000    -222.2965728    169.4477212     49.8402599     92.8761886
    1870.000    -223.9923874    169.7149631     49.8407563     93.3745937
    1880.000    -225.6908673    169.9807824     49.8412448     93.8730037
    1890.000    -227.3919984    170.2451941     49.8417256     94.3714185
    1900.000    -229.0957666    170.5082130     49.8421988     94.8698382
    1910.000    -230.8021580    170.7698537     49.8426646     95.3682625
    1920.000    -232.5111591    171.0301305     49.8431232     95.8666914
    1930.000    -234.2227561    171.2890575     49.8435746     96.3651249
    1940.000    -235.9369358    171.5466488     49.8440191     96.8635629
    1950.000    -237.6536847    171.8029179     49.8444568     97.3620053
    1960.000    -239.3729898    172.0578785     49.8448878     97.8604520
    1970.000    -241.0948380    172.3115436     49.8453123     98.3589030
    1980.000    -242.8192164    172.5639266     49.8457304     98.8573582
    1990.000    -244.5461123    172.8150401     49.8461421     99.3558176
    2000.000    -246.2755130    173.0648970     49.8465478     99.8542811
